File: throughputs/baseline/m1_ProtAl_Aged.dat
# Aged protected aluminum mirror coating - upward looking, V1, Date=February 27, 2012
# Simple loss model with fixed losses per filter band
# Filter % Loss
#   u      4.0
#   g      3.8
#   r      3.6
#   i      3.6
#   z      3.6
#   y      3.6
# Wavelength(nm) Reflectance(0-1)
300.00	0.87327
304.00	0.87404
308.00	0.87442
312.00	0.87481
316.00	0.87520
320.00	0.87558
324.00	0.87635
328.00	0.87673
332.00	0.87750
336.00	0.87789
340.00	0.87827
344.00	0.87866
348.00	0.87903
352.00	0.87941
356.00	0.87980
360.00	0.88018
364.00	0.88056
368.00	0.88132
372.00	0.88170
376.00	0.88246
380.00	0.88283
384.00	0.88322
388.00	0.88322
392.00	0.88359
396.00	0.88398
400.00	0.88398
404.00	0.88616
408.00	0.88616
412.00	0.88616
416.00	0.88616
420.00	0.88653
424.00	0.88653
428.00	0.88653
432.00	0.88692
436.00	0.88692
440.00	0.88653
444.00	0.88616
448.00	0.88616
452.00	0.88578
456.00	0.88540
460.00	0.88502
464.00	0.88502
468.00	0.88464
472.00	0.88426
476.00	0.88426
480.00	0.88388
484.00	0.88388
488.00	0.88388
492.00	0.88350
496.00	0.88312
500.00	0.88274
504.00	0.88235
508.00	0.88159
512.00	0.88121
516.00	0.88082
520.00	0.88045
524.00	0.88006
528.00	0.87968
532.00	0.87929
536.00	0.87929
540.00	0.87891
544.00	0.87853
548.00	0.87814
552.00	0.87814
556.00	0.87958
560.00	0.87919
564.00	0.87919
568.00	0.87919
572.00	0.87919
576.00	0.87881
580.00	0.87881
584.00	0.87803
588.00	0.87764
592.00	0.87687
596.00	0.87648
600.00	0.87609
604.00	0.87532
608.00	0.87492
612.00	0.87454
616.00	0.87414
620.00	0.87376
624.00	0.87336
628.00	0.87296
632.00	0.87296
636.00	0.87258
640.00	0.87218
644.00	0.87179
648.00	0.87179
652.00	0.87061
656.00	0.86864
660.00	0.86785
664.00	0.86586
668.00	0.86427
672.00	0.86347
676.00	0.86146
680.00	0.86066
684.00	0.85863
688.00	0.85742
692.00	0.85655
696.00	0.85532
700.00	0.85369
704.00	0.85287
708.00	0.85205
712.00	0.85080
716.00	0.84998
720.00	0.84915
724.00	0.84832
728.00	0.84749
732.00	0.84666
736.00	0.84583
740.00	0.84499
744.00	0.84415
748.00	0.84331
752.00	0.84247
756.00	0.84120
760.00	0.84036
764.00	0.83951
768.00	0.83824
772.00	0.83738
776.00	0.83653
780.00	0.83567
784.00	0.83439
788.00	0.83353
792.00	0.83267
796.00	0.83137
800.00	0.83051
804.00	0.83051
808.00	0.83051
812.00	0.83008
816.00	0.83008
820.00	0.83008
824.00	0.83008
828.00	0.83008
832.00	0.82965
836.00	0.82965
840.00	0.82965
844.00	0.82965
848.00	0.82920
852.00	0.83051
856.00	0.83224
860.00	0.83396
864.00	0.83611
868.00	0.83781
872.00	0.83951
876.00	0.84120
880.00	0.84289
884.00	0.84456
888.00	0.84624
892.00	0.84791
896.00	0.84957
900.00	0.85122
904.00	0.85327
908.00	0.85613
912.00	0.85817
916.00	0.85979
920.00	0.86301
924.00	0.86462
928.00	0.86701
932.00	0.86899
936.00	0.87214
940.00	0.87332
944.00	0.87527
948.00	0.87722
952.00	0.87877
956.00	0.87916
960.00	0.87955
964.00	0.87993
968.00	0.88032
972.00	0.88109
976.00	0.88147
980.00	0.88186
984.00	0.88225
988.00	0.88262
992.00	0.88301
996.00	0.88339
1000.00	0.88415
1004.00	0.88454
1008.00	0.88492
1012.00	0.88530
1016.00	0.88569
1020.00	0.88606
1024.00	0.88644
1028.00	0.88683
1032.00	0.88720
1036.00	0.88759
1040.00	0.88796
1044.00	0.88834
1048.00	0.88873
1052.00	0.88910
1056.00	0.88948
1060.00	0.88985
1064.00	0.89023
1068.00	0.89061
1072.00	0.89098
1076.00	0.89136
1080.00	0.89173
1084.00	0.89211
1088.00	0.89249
1092.00	0.89286
1096.00	0.89324
1100.00	0.89361
1104.00	0.89399
1108.00	0.89436
1112.00	0.89473
1116.00	0.89511
1120.00	0.89511
1124.00	0.89547
1128.00	0.89585
1132.00	0.89623
1136.00	0.89659
1140.00	0.89697
1144.00	0.89734
1148.00	0.89734
1152.00	0.89771
1156.00	0.89808
1160.00	0.89845
1164.00	0.89882
1168.00	0.89919
1172.00	0.89919
1176.00	0.89956
1180.00	0.89993
1184.00	0.90030
1188.00	0.90066
1192.00	0.90066
1196.00	0.90104
1200.00	0.90140