File: throughputs/baseline/m2_ProtAl_Aged.dat
# Aged protected aluminum mirror coating - downward looking, V1, Date=February 27, 2012
# Simple loss model with fixed losses per filter band
# Filter % Loss
#   u      3.7
#   g      3.5
#   r      3.3
#   i      3.3
#   z      3.3
#   y      3.3
# Wavelength(nm) Reflectance(0-1)
300.00	0.87591
304.00	0.87668
308.00	0.87707
312.00	0.87747
316.00	0.87785
320.00	0.87824
324.00	0.87901
328.00	0.87939
332.00	0.88016
336.00	0.88055
340.00	0.88093
344.00	0.88132
348.00	0.88169
352.00	0.88208
356.00	0.88246
360.00	0.88285
364.00	0.88323
368.00	0.88399
372.00	0.88437
376.00	0.88513
380.00	0.88551
384.00	0.88589
388.00	0.88589
392.00	0.88627
396.00	0.88665
400.00	0.88665
404.00	0.88884
408.00	0.88884
412.00	0.88884
416.00	0.88884
420.00	0.88921
424.00	0.88921
428.00	0.88921
432.00	0.88960
436.00	0.88960
440.00	0.88921
444.00	0.88884
448.00	0.88884
452.00	0.88846
456.00	0.88808
460.00	0.88770
464.00	0.88770
468.00	0.88731
472.00	0.88694
476.00	0.88694
480.00	0.88656
484.00	0.88656
488.00	0.88656
492.00	0.88617
496.00	0.88579
500.00	0.88541
504.00	0.88503
508.00	0.88426
512.00	0.88388
516.00	0.88349
520.00	0.88311
524.00	0.88273
528.00	0.88234
532.00	0.88196
536.00	0.88196
540.00	0.88157
544.00	0.88118
548.00	0.88080
552.00	0.88080
556.00	0.88215
560.00	0.88176
564.00	0.88176
568.00	0.88176
572.00	0.88176
576.00	0.88138
580.00	0.88138
584.00	0.88060
588.00	0.88021
592.00	0.87943
596.00	0.87905
600.00	0.87865
604.00	0.87788
608.00	0.87748
612.00	0.87709
616.00	0.87670
620.00	0.87631
624.00	0.87591
628.00	0.87552
632.00	0.87552
636.00	0.87513
640.00	0.87473
644.00	0.87434
648.00	0.87434
652.00	0.87316
656.00	0.87118
660.00	0.87038
664.00	0.86839
668.00	0.86680
672.00	0.86600
676.00	0.86398
680.00	0.86317
684.00	0.86114
688.00	0.85993
692.00	0.85914
696.00	0.85791
700.00	0.85627
704.00	0.85545
708.00	0.85462
712.00	0.85338
716.00	0.85255
720.00	0.85172
724.00	0.85089
728.00	0.85005
732.00	0.84922
736.00	0.84838
740.00	0.84754
744.00	0.84670
748.00	0.84586
752.00	0.84502
756.00	0.84374
760.00	0.84290
764.00	0.84205
768.00	0.84077
772.00	0.83991
776.00	0.83906
780.00	0.83820
784.00	0.83691
788.00	0.83605
792.00	0.83519
796.00	0.83389
800.00	0.83302
804.00	0.83302
808.00	0.83302
812.00	0.83259
816.00	0.83259
820.00	0.83259
824.00	0.83259
828.00	0.83259
832.00	0.83216
836.00	0.83216
840.00	0.83216
844.00	0.83216
848.00	0.83171
852.00	0.83302
856.00	0.83476
860.00	0.83648
864.00	0.83864
868.00	0.84035
872.00	0.84205
876.00	0.84374
880.00	0.84544
884.00	0.84712
888.00	0.84880
892.00	0.85047
896.00	0.85214
900.00	0.85379
904.00	0.85585
908.00	0.85872
912.00	0.86076
916.00	0.86239
920.00	0.86562
924.00	0.86723
928.00	0.86963
932.00	0.87162
936.00	0.87478
940.00	0.87596
944.00	0.87792
948.00	0.87987
952.00	0.88143
956.00	0.88182
960.00	0.88221
964.00	0.88259
968.00	0.88298
972.00	0.88375
976.00	0.88414
980.00	0.88453
984.00	0.88491
988.00	0.88529
992.00	0.88568
996.00	0.88606
1000.00	0.88683
1004.00	0.88722
1008.00	0.88759
1012.00	0.88798
1016.00	0.88837
1020.00	0.88874
1024.00	0.88912
1028.00	0.88951
1032.00	0.88988
1036.00	0.89027
1040.00	0.89065
1044.00	0.89103
1048.00	0.89141
1052.00	0.89179
1056.00	0.89217
1060.00	0.89254
1064.00	0.89292
1068.00	0.89330
1072.00	0.89368
1076.00	0.89405
1080.00	0.89443
1084.00	0.89481
1088.00	0.89518
1092.00	0.89556
1096.00	0.89594
1100.00	0.89632
1104.00	0.89669
1108.00	0.89706
1112.00	0.89744
1116.00	0.89782
1120.00	0.89782
1124.00	0.89818
1128.00	0.89856
1132.00	0.89894
1136.00	0.89930
1140.00	0.89968
1144.00	0.90005
1148.00	0.90005
1152.00	0.90043
1156.00	0.90079
1160.00	0.90117
1164.00	0.90154
1168.00	0.90191
1172.00	0.90191
1176.00	0.90228
1180.00	0.90265
1184.00	0.90302
1188.00	0.90339
1192.00	0.90339
1196.00	0.90376
1200.00	0.90413