File: throughputs/baseline/m3.dat
# Ideal (no losses) protected aluminum mirror coating, V2, Date=March 7, 2011
# Wavelength(nm) Reflectance(0-1)
300.00	0.90937
304.00	0.91017
308.00	0.91057
312.00	0.91098
316.00	0.91138
320.00	0.91178
324.00	0.91258
328.00	0.91298
332.00	0.91378
336.00	0.91418
340.00	0.91458
344.00	0.91498
348.00	0.91537
352.00	0.91577
356.00	0.91617
360.00	0.91657
364.00	0.91696
368.00	0.91775
372.00	0.91815
376.00	0.91894
380.00	0.91933
384.00	0.91973
388.00	0.91973
392.00	0.92012
396.00	0.92052
400.00	0.92052
404.00	0.92091
408.00	0.92091
412.00	0.92091
416.00	0.92091
420.00	0.92130
424.00	0.92130
428.00	0.92130
432.00	0.92170
436.00	0.92170
440.00	0.92130
444.00	0.92091
448.00	0.92091
452.00	0.92052
456.00	0.92012
460.00	0.91973
464.00	0.91973
468.00	0.91933
472.00	0.91894
476.00	0.91894
480.00	0.91855
484.00	0.91855
488.00	0.91855
492.00	0.91815
496.00	0.91775
500.00	0.91736
504.00	0.91696
508.00	0.91617
512.00	0.91577
516.00	0.91537
520.00	0.91498
524.00	0.91458
528.00	0.91418
532.00	0.91378
536.00	0.91378
540.00	0.91338
544.00	0.91298
548.00	0.91258
552.00	0.91258
556.00	0.91258
560.00	0.91218
564.00	0.91218
568.00	0.91218
572.00	0.91218
576.00	0.91178
580.00	0.91178
584.00	0.91098
588.00	0.91057
592.00	0.90977
596.00	0.90937
600.00	0.90896
604.00	0.90816
608.00	0.90775
612.00	0.90735
616.00	0.90694
620.00	0.90654
624.00	0.90613
628.00	0.90572
632.00	0.90572
636.00	0.90532
640.00	0.90491
644.00	0.90450
648.00	0.90450
652.00	0.90328
656.00	0.90123
660.00	0.90041
664.00	0.89835
668.00	0.89670
672.00	0.89587
676.00	0.89378
680.00	0.89295
684.00	0.89085
688.00	0.88959
692.00	0.88833
696.00	0.88706
700.00	0.88536
704.00	0.88451
708.00	0.88366
712.00	0.88237
716.00	0.88152
720.00	0.88066
724.00	0.87980
728.00	0.87893
732.00	0.87807
736.00	0.87721
740.00	0.87634
744.00	0.87547
748.00	0.87460
752.00	0.87373
756.00	0.87241
760.00	0.87154
764.00	0.87066
768.00	0.86934
772.00	0.86845
776.00	0.86757
780.00	0.86668
784.00	0.86535
788.00	0.86446
792.00	0.86357
796.00	0.86222
800.00	0.86132
804.00	0.86132
808.00	0.86132
812.00	0.86088
816.00	0.86088
820.00	0.86088
824.00	0.86088
828.00	0.86088
832.00	0.86043
836.00	0.86043
840.00	0.86043
844.00	0.86043
848.00	0.85997
852.00	0.86132
856.00	0.86312
860.00	0.86490
864.00	0.86713
868.00	0.86890
872.00	0.87066
876.00	0.87241
880.00	0.87416
884.00	0.87590
888.00	0.87764
892.00	0.87937
896.00	0.88109
900.00	0.88280
904.00	0.88493
908.00	0.88790
912.00	0.89001
916.00	0.89169
920.00	0.89503
924.00	0.89670
928.00	0.89918
932.00	0.90123
936.00	0.90450
940.00	0.90572
944.00	0.90775
948.00	0.90977
952.00	0.91138
956.00	0.91178
960.00	0.91218
964.00	0.91258
968.00	0.91298
972.00	0.91378
976.00	0.91418
980.00	0.91458
984.00	0.91498
988.00	0.91537
992.00	0.91577
996.00	0.91617
1000.0	0.91696
1004.0	0.91736
1008.0	0.91775
1012.0	0.91815
1016.0	0.91855
1020.0	0.91894
1024.0	0.91933
1028.0	0.91973
1032.0	0.92012
1036.0	0.92052
1040.0	0.92091
1044.0	0.92130
1048.0	0.92170
1052.0	0.92209
1056.0	0.92248
1060.0	0.92287
1064.0	0.92326
1068.0	0.92365
1072.0	0.92404
1076.0	0.92443
1080.0	0.92482
1084.0	0.92521
1088.0	0.92560
1092.0	0.92599
1096.0	0.92638
1100.0	0.92677
1104.0	0.92716
1108.0	0.92754
1112.0	0.92793
1116.0	0.92832
1120.0	0.92832
1124.0	0.92870
1128.0	0.92909
1132.0	0.92948
1136.0	0.92986
1140.0	0.93025
1144.0	0.93063
1148.0	0.93063
1152.0	0.93102
1156.0	0.93140
1160.0	0.93179
1164.0	0.93217
1168.0	0.93255
1172.0	0.93255
1176.0	0.93294
1180.0	0.93332
1184.0	0.93370
1188.0	0.93408
1192.0	0.93408
1196.0	0.93447
1200.0	0.93485